File: XRD 400C-Jamie DeCoster.csv
2theta (400C),intensity (400C)
0.36387,-2193.2
0.40691,-2188.74
0.44996,-2184.2
0.493,-2181.93
0.53604,-2179.46
0.57908,-2173.63
0.62213,-2119.74
0.66517,-2057.15
0.70821,-2011.79
0.75126,-1970.78
0.7943,-1953.96
0.83734,-1957.14
0.88039,-1972.99
0.92343,-1990.54
0.96647,-2004.4
1.00951,-2014.54
1.05256,-2023.84
1.0956,-2031.02
1.13864,-2036.31
1.18169,-2040.17
1.22473,-2043.56
1.26777,-2046.94
1.31081,-2048.85
1.35386,-2050.58
1.3969,-2051.93
1.43994,-2052.37
1.48299,-2052.16
1.52603,-2052.3
1.56907,-2052.1
1.61211,-2051.99
1.65516,-2051.27
1.6982,-2050.79
1.74124,-2049.68
1.78429,-2048.8
1.82733,-2047.58
1.87037,-2046.57
1.91341,-2045.1
1.95646,-2043.87
1.9995,-2042.86
2.04254,-2042.41
2.08559,-2043.02
2.12863,-2043.4
2.17167,-2043.84
2.21471,-2043.83
2.25776,-2043.64
2.3008,-2042.89
2.34384,-2041.51
2.38689,-2039.74
2.42993,-2036.83
2.47297,-2033.28
2.51601,-2027.84
2.55906,-2021.37
2.6021,-2012.84
2.64514,-2001.18
2.68819,-1985.91
2.73123,-1964.06
2.77427,-1928.27
2.81731,-1866.62
2.86036,-1754.41
2.9034,-1536.54
2.94644,-1090.68
2.98949,-260.637
3.03253,626.831
3.07557,479.572
3.11862,-488.327
3.16166,-1229.46
3.2047,-1599.88
3.24774,-1774.96
3.29079,-1854.42
3.33383,-1878.48
3.37687,-1854.13
3.41992,-1759.17
3.46296,-1549.87
3.506,-1312.62
3.54904,-1371.26
3.59209,-1647.88
3.63513,-1841.57
3.67817,-1937.35
3.72122,-1986.77
3.76426,-2014.67
3.8073,-2031.21
3.85034,-2041.46
3.89339,-2047.85
3.93643,-2052.19
3.97947,-2055.4
4.02252,-2057.97
4.06556,-2060.05
4.1086,-2061.06
4.15164,-2061.81
4.19469,-2061.85
4.23773,-2061.65
4.28077,-2060.71
4.32382,-2059.53
4.36686,-2057.79
4.4099,-2055.21
4.45294,-2052.07
4.49599,-2048.24
4.53903,-2043.2
4.58207,-2036.52
4.62512,-2027.35
4.66816,-2012.48
4.7112,-1987.28
4.75424,-1940.92
4.79729,-1850.35
4.84033,-1676.68
4.88337,-1365.14
4.92642,-927.982
4.96946,-603.223
5.0125,-713.955
5.05554,-1142.43
5.09859,-1536.36
5.14163,-1773.47
5.18467,-1896.3
5.22772,-1958.93
5.27076,-1991.08
5.3138,-2007.67
5.35684,-2015.4
5.39989,-2018.13
5.44293,-2017.39
5.48597,-2012.65
5.52902,-2002.19
5.57206,-1982.04
5.6151,-1943.38
5.65815,-1868.47
5.70119,-1723.64
5.74423,-1467.15
5.78727,-1117.77
5.83032,-865.499
5.87336,-944.694
5.9164,-1262.78
5.95945,-1553.71
6.00249,-1709.5
6.04553,-1759.3
6.08857,-1773.6
6.13162,-1813.51
6.17466,-1883.19
6.2177,-1949.92
6.26075,-1996.43
6.30379,-2024.78
6.34683,-2041.69
6.38987,-2051.89
6.43292,-2058.49
6.47596,-2062.63
6.519,-2065.37
6.56205,-2067.08
6.60509,-2068.2
6.64813,-2068.22
6.69117,-2067.77
6.73422,-2066.02
6.77726,-2063.15
6.8203,-2056.26
6.86335,-2042.57
6.90639,-2015.57
6.94943,-1964.3
6.99247,-1894.4
7.03552,-1842.71
7.07856,-1857.82
7.1216,-1922.16
7.16465,-1982.26
7.20769,-2018.23
7.25073,-2035.92
7.29377,-2042.95
7.33682,-2042.69
7.37986,-2036.79
7.4229,-2023.72
7.46595,-1999.03
7.50899,-1954.42
7.55203,-1878.93
7.59507,-1769.26
7.63812,-1648.53
7.68116,-1574.92
7.7242,-1582.74
7.76725,-1631.73
7.81029,-1661.03
7.85333,-1666.62
7.89637,-1695.87
7.93942,-1772.67
7.98246,-1865.73
8.0255,-1940.35
8.06855,-1987.65
8.11159,-2014.92
8.15463,-2029.75
8.19768,-2037.33
8.24072,-2040.3
8.28376,-2039.65
8.3268,-2035.05
8.36985,-2024.83
8.41289,-2005.12
8.45593,-1969.97
8.49898,-1911.28
8.54202,-1826.69
8.58506,-1734.93
8.6281,-1681.07
8.67115,-1702.89
8.71419,-1782.43
8.75723,-1871.2
8.80028,-1938.03
8.84332,-1977.8
8.88636,-1996.3
8.9294,-1997.35
8.97245,-1981.07
9.01549,-1943.06
9.05853,-1878.83
9.10158,-1798.14
9.14462,-1739.91
9.18766,-1747.44
9.2307,-1815.93
9.27375,-1898.55
9.31679,-1963.87
9.35983,-2005.7
9.40288,-2030.35
9.44592,-2044.56
9.48896,-2052.64
9.532,-2057.33
9.57505,-2059.94
9.61809,-2060.64
9.66113,-2059.9
9.70418,-2057.19
9.74722,-2051.31
9.79026,-2041.27
9.8333,-2024.76
9.87635,-2001.91
9.91939,-1976.69
9.96243,-1959.26
10.00548,-1958.63
10.04852,-1973.21
10.09156,-1991.1
10.1346,-2002.87
10.17765,-2003.91
10.22069,-1991.35
10.26373,-1962.21
10.30678,-1913.02
10.34982,-1845.9
10.39286,-1776.67
10.43591,-1732.39
10.47895,-1730.22
10.52199,-1758.83
10.56503,-1800.44
10.60808,-1848.9
10.65112,-1901.84
10.69416,-1949.9
10.73721,-1986.6
10.78025,-2011.12
10.82329,-2025.8
10.86633,-2033.08
10.90938,-2034.17
10.95242,-2028.59
10.99546,-2014.53
11.03851,-1990.27
11.08155,-1957.94
11.12459,-1928.51
11.16763,-1918.86
11.21068,-1935.42
11.25372,-1965.87
11.29676,-1993.96
11.33981,-2011.23
11.38285,-2016.54
11.42589,-2010.75
11.46893,-1995.6
11.51198,-1975.01
11.55502,-1955.66
11.59806,-1943.76
11.64111,-1941.58
11.68415,-1948.49
11.72719,-1964.41
11.77023,-1987.3
11.81328,-2010.89
11.85632,-2030.22
11.89936,-2043.51
11.94241,-2051.53
11.98545,-2055.48
12.02849,-2056.16
12.07153,-2054.21
12.11458,-2049.97
12.15762,-2044.49
12.20066,-2039.38
12.24371,-2036.52
12.25985,-2036.37