File: XRD 700C-Jamie DeCoster.csv
2theta (700C),intensity (700C)
0.2135,-1324.47
0.25691,-1310.32
0.30031,-1300.72
0.34372,-1294.47
0.38713,-1286.44
0.43054,-1190.67
0.47395,-1075.4
0.51736,-1077.38
0.56076,-1109.96
0.60417,-1131.34
0.64758,-1150.84
0.69099,-1173.75
0.7344,-1190.38
0.77781,-1202.32
0.82121,-1211.43
0.86462,-1217.8
0.90803,-1223.19
0.95144,-1227.22
0.99485,-1230.25
1.03825,-1232.3
1.08166,-1234.58
1.12507,-1236.93
1.16848,-1238.64
1.21189,-1239.75
1.2553,-1240.41
1.2987,-1241.64
1.34211,-1242.83
1.38552,-1243.67
1.42893,-1244.18
1.47234,-1245.26
1.51575,-1245.5
1.55915,-1246.44
1.60256,-1246.68
1.64597,-1246.86
1.68938,-1246.92
1.73279,-1247.39
1.77619,-1247.49
1.8196,-1247.49
1.86301,-1247.74
1.90642,-1247.87
1.94983,-1247.66
1.99324,-1247.34
2.03664,-1247.19
2.08005,-1247.74
2.12346,-1248.31
2.16687,-1248.54
2.21028,-1248.56
2.25369,-1248.76
2.29709,-1248.69
2.3405,-1248.62
2.38391,-1248.56
2.42732,-1248.1
2.47073,-1247.23
2.51414,-1246.27
2.55754,-1244.84
2.60095,-1242.82
2.64436,-1239.78
2.68777,-1235.5
2.73118,-1228.79
2.77458,-1218.06
2.81799,-1199.99
2.8614,-1168.67
2.90481,-1105.1
2.94822,-908.248
2.99163,-177.976
3.03503,946.026
3.07844,796.8419
3.12185,-412.196
3.16526,-991.551
3.20867,-1134.84
3.25208,-1179.5
3.29548,-1197.57
3.33889,-1201.78
3.3823,-1191.65
3.42571,-1136.43
3.46912,-909.729
3.51252,-624.175
3.55593,-730.239
3.59934,-1058.9
3.64275,-1190.05
3.68616,-1223.13
3.72957,-1235.79
3.77297,-1242.57
3.81638,-1246.66
3.85979,-1249.41
3.9032,-1251.22
3.94661,-1252.58
3.99002,-1253.44
4.03342,-1254.23
4.07683,-1254.62
4.12024,-1255.04
4.16365,-1255.15
4.20706,-1255.05
4.25046,-1254.63
4.29387,-1254.3
4.33728,-1253.69
4.38069,-1252.99
4.4241,-1252.29
4.46751,-1251.28
4.51091,-1250.14
4.55432,-1248.64
4.59773,-1246.44
4.64114,-1243.04
4.68455,-1238.26
4.72796,-1230.42
4.77136,-1216.36
4.81477,-1187.18
4.85818,-1107.34
4.90159,-838.08
4.945,-241.763
4.9884,60.93089
5.03181,-388.894
5.07522,-930.0732
5.11863,-1135.35
5.16204,-1196.84
5.20545,-1220.68
5.24885,-1231.99
5.29226,-1237.95
5.33567,-1241.49
5.37908,-1242.76
5.42249,-1242.99
5.4659,-1242.09
5.5093,-1239.58
5.55271,-1235.2
5.59612,-1227.59
5.63953,-1212.83
5.68294,-1181.68
5.72634,-1096.27
5.76975,-825.233
5.81316,-332.925
5.85657,-198.076
5.89998,-620.895
5.94339,-1007.674
5.98679,-1130.3
6.0302,-1125.22
6.07361,-1061.58
6.11702,-1049.81
6.16043,-1126.5
6.20384,-1200.05
6.24724,-1231.14
6.29065,-1242.88
6.33406,-1248.42
6.37747,-1251.81
6.42088,-1253.69
6.46428,-1255.04
6.50769,-1255.89
6.5511,-1256.49
6.59451,-1256.85
6.63792,-1256.89
6.68133,-1256.71
6.72473,-1256.28
6.76814,-1255.35
6.81155,-1253.74
6.85496,-1250.38
6.89837,-1243.46
6.94178,-1222.71
6.98518,-1156.58
7.02859,-1061.1
7.072,-1062.68
7.11541,-1158.49
7.15882,-1222.05
7.20222,-1241.41
7.24563,-1247.2
7.28904,-1249.08
7.33245,-1249.05
7.37586,-1247.35
7.41927,-1243.99
7.46267,-1237.26
7.50608,-1223.61
7.54949,-1191.78
7.5929,-1109.85
7.63631,-946.487
7.67972,-825.7343
7.72312,-896.23
7.76653,-1036.46
7.80994,-1057.89
7.85335,-978.187
7.89676,-963.738
7.94017,-1069.97
7.98357,-1172.98
8.02698,-1217.48
8.07039,-1234.33
8.1138,-1241.73
8.15721,-1245.53
8.20061,-1247.36
8.24402,-1247.96
8.28743,-1247.58
8.33084,-1245.97
8.37425,-1242.86
8.41766,-1236.64
8.46106,-1223.74
8.50447,-1194.22
8.54788,-1121
8.59129,-983.865
8.6347,-892
8.67811,-963.4767
8.72151,-1104.09
8.76492,-1186.05
8.80833,-1218.76
8.85174,-1231.46
8.89515,-1235.82
8.93855,-1234.94
8.98196,-1228.16
9.02537,-1208.98
9.06878,-1155.61
9.11219,-1041.67
9.1556,-947.573
9.199,-998.24
9.24241,-1124.86
9.28582,-1200.01
9.32923,-1229.27
9.37264,-1241.54
9.41605,-1247.36
9.45945,-1250.69
9.50286,-1252.54
9.54627,-1253.6
9.58968,-1254.17
9.63309,-1254.15
9.67649,-1253.75
9.7199,-1252.54
9.76331,-1250.29
9.80672,-1245.4
9.85013,-1234.7
9.89354,-1210.77
9.93694,-1172.87
9.98035,-1152.49
10.02376,-1174.3
10.06717,-1209.98
10.11058,-1229.75
10.15399,-1236.32
10.19739,-1235.5
10.2408,-1228.51
10.28421,-1211.07
10.32762,-1170.53
10.37103,-1086.37
10.41443,-988.063
10.45784,-973.774
10.50125,-1038.34
10.54466,-1078.33
10.58807,-1097.06
10.63148,-1142.32
10.67488,-1193.53
10.71829,-1222.95
10.7617,-1236.51
10.80511,-1242.8
10.84852,-1245.76
10.89193,-1246.58
10.93533,-1245.55
10.97874,-1241.73
11.02215,-1231.67
11.06556,-1206.23
11.10897,-1155.99
11.15237,-1115.87
11.19578,-1136.34
11.23919,-1190.1
11.2826,-1224.12
11.32601,-1237.19
11.36942,-1240.31
11.41282,-1237.28
11.45623,-1226.47
11.49964,-1203.86
11.54305,-1173.84
11.58646,-1159.15
11.62987,-1164.92
11.67327,-1168.29
11.71668,-1175.56
11.76009,-1200.71
11.8035,-1227.13
11.84691,-1241.8
11.89031,-1248.34
11.93372,-1251.47
11.97713,-1252.72
12.02054,-1252.75
12.06395,-1251.37
12.10736,-1248.04
12.15076,-1241.23
12.19417,-1232.65
12.21045,-1230.29