File: XRD 500C-Jamie DeCoster.csv
theta (500C),intensity (500C)
0.2135,-1608.67
0.25691,-1595.07
0.30031,-1585.11
0.34372,-1578
0.38713,-1566.79
0.43054,-1398.25
0.47395,-1175.74
0.51736,-1171.63
0.56076,-1233.33
0.60417,-1278.32
0.64758,-1322.24
0.69099,-1368.97
0.7344,-1402.64
0.77781,-1428.58
0.82121,-1447.58
0.86462,-1462.18
0.90803,-1474.11
0.95144,-1483.07
0.99485,-1489.87
1.03825,-1495.55
1.08166,-1500.51
1.12507,-1505.13
1.16848,-1508.77
1.21189,-1510.81
1.2553,-1513.1
1.2987,-1515.66
1.34211,-1517.47
1.38552,-1519.18
1.42893,-1520.45
1.47234,-1521.4
1.51575,-1522.4
1.55915,-1523.075
1.60256,-1523.76
1.64597,-1524.26
1.68938,-1524.66
1.73279,-1525.32
1.77619,-1525.51
1.8196,-1525.48
1.86301,-1525.69
1.90642,-1525.59
1.94983,-1525.57
1.99324,-1525.07
2.03664,-1524.71
2.08005,-1524.94
2.12346,-1525.13
2.16687,-1525.18
2.21028,-1524.83
2.25369,-1524.47
2.29709,-1523.89
2.3405,-1523.23
2.38391,-1522.11
2.42732,-1520.65
2.47073,-1518.52
2.51414,-1515.88
2.55754,-1512.28
2.60095,-1507.87
2.64436,-1501.79
2.68777,-1493.32
2.73118,-1480.88
2.77458,-1461.06
2.81799,-1426.78
2.8614,-1363.4
2.90481,-1236.26
2.94822,-969.16
2.99163,-501.794
3.03503,-78.86437
3.07844,-166.739
3.12185,-661.681
3.16526,-1075.88
3.20867,-1286.48
3.25208,-1380.85
3.29548,-1421.97
3.33889,-1430.83
3.3823,-1410.82
3.42571,-1344.71
3.46912,-1221.91
3.51252,-1124.87
3.55593,-1174.2
3.59934,-1312.77
3.64275,-1415.47
3.68616,-1466.49
3.72957,-1491.95
3.77297,-1505.72
3.81638,-1513.84
3.85979,-1518.68
3.9032,-1521.75
3.94661,-1524.24
3.99002,-1525.74
4.03342,-1526.94
4.07683,-1527.83
4.12024,-1528.28
4.16365,-1528.48
4.20706,-1528.52
4.25046,-1527.93
4.29387,-1527.33
4.33728,-1526.65
4.38069,-1525.43
4.4241,-1524.28
4.46751,-1522.49
4.51091,-1520.2
4.55432,-1517.02
4.59773,-1513.14
4.64114,-1507.31
4.68455,-1498.02
4.72796,-1480.78
4.77136,-1447.46
4.81477,-1380.22
4.85818,-1250.03
4.90159,-1037.35
4.945,-807.747
4.9884,-733.357
5.03181,-887.071
5.07522,-1128.12
5.11863,-1310.57
5.16204,-1410.84
5.20545,-1460.67
5.24885,-1485.45
5.29226,-1497.86
5.33567,-1503.99
5.37908,-1506.55
5.42249,-1506.9
5.4659,-1505.3
5.5093,-1500.91
5.55271,-1492.53
5.59612,-1476.62
5.63953,-1444.81
5.68294,-1381.11
5.72634,-1261.78
5.76975,-1081.83
5.81316,-914.032
5.85657,-887.524
5.89998,-1022.55
5.94339,-1197.67
5.98679,-1312.81
6.0302,-1358.3
6.07361,-1369.86
6.11702,-1385.89
6.16043,-1419.7
6.20384,-1458.34
6.24724,-1488.03
6.29065,-1506.31
6.33406,-1516.93
6.37747,-1523.46
6.42088,-1527.22
6.46428,-1529.73
6.50769,-1531.36
6.5511,-1532.42
6.59451,-1533.09
6.63792,-1533.2
6.68133,-1532.94
6.72473,-1532.13
6.76814,-1530.45
6.81155,-1527.05
6.85496,-1520.14
6.89837,-1505.76
6.94178,-1479.38
6.98518,-1442.06
7.02859,-1413.31
7.072,-1416.83
7.11541,-1448.42
7.15882,-1482.39
7.20222,-1504.46
7.24563,-1515.31
7.28904,-1519.4
7.33245,-1519.59
7.37586,-1516.42
7.41927,-1509.53
7.46267,-1496
7.50608,-1471.34
7.54949,-1429.25
7.5929,-1367.96
7.63631,-1302.15
7.67972,-1263.21
7.72312,-1267.79
7.76653,-1293.84
7.80994,-1309.5
7.85335,-1314.48
7.89676,-1333.86
7.94017,-1376.91
7.98357,-1427.25
8.02698,-1467.11
8.07039,-1492.2
8.1138,-1506.24
8.15721,-1513.86
8.20061,-1517.52
8.24402,-1518.69
8.28743,-1518.08
8.33084,-1515.12
8.37425,-1509.02
8.41766,-1496.98
8.46106,-1475.35
8.50447,-1439.51
8.54788,-1390.41
8.59129,-1342.22
8.6347,-1321.56
8.67811,-1342.55
8.72151,-1389.61
8.76492,-1436.99
8.80833,-1470.33
8.85174,-1489.11
8.89515,-1496.58
8.93855,-1494.75
8.98196,-1482.58
9.02537,-1457.01
9.06878,-1417.13
9.11219,-1375.07
9.1556,-1354
9.199,-1370.62
9.24241,-1412.98
9.28582,-1456.35
9.32923,-1487.81
9.37264,-1507.06
9.41605,-1517.86
9.45945,-1523.96
9.50286,-1527.42
9.54627,-1529.42
9.58968,-1530.24
9.63309,-1530.41
9.67649,-1529.59
9.7199,-1527.36
9.76331,-1523.23
9.80672,-1516.08
9.85013,-1505.22
9.89354,-1491.37
9.93694,-1478.99
9.98035,-1473.85
10.02376,-1478.26
10.06717,-1488.2
10.11058,-1497.02
10.15399,-1500.78
10.19739,-1497.64
10.2408,-1486.03
10.28421,-1463.78
10.32762,-1430.34
10.37103,-1391.23
10.41443,-1360.062
10.45784,-1349.67
10.50125,-1360.13
10.54466,-1381.29
10.58807,-1407.14
10.63148,-1435.89
10.67488,-1463.71
10.71829,-1486.19
10.7617,-1501.67
10.80511,-1511.03
10.84852,-1516.23
10.89193,-1517.62
10.93533,-1515.81
10.97874,-1509.61
11.02215,-1497.68
11.06556,-1480.61
11.10897,-1463.26
11.15237,-1454.73
11.19578,-1460.34
11.23919,-1475.96
11.2826,-1492.26
11.32601,-1503.53
11.36942,-1507.69
11.41282,-1505.53
11.45623,-1498.27
11.49964,-1487.63
11.54305,-1476.69
11.58646,-1469.43
11.62987,-1467.34
11.67327,-1470.33
11.71668,-1478.31
11.76009,-1490.24
11.8035,-1503.22
11.84691,-1514.08
11.89031,-1521.71
11.93372,-1526.22
11.97713,-1528.46
12.02054,-1529.01
12.06395,-1527.9
12.10736,-1525.66
12.15076,-1522.76
12.19417,-1520.17
12.21045,-1519.33